;     unknown uv absorber vertical profile from Haus et al. (2015)
;     profile is given as number mixing ratio, which is to be
;       combined with Haus' absorption cross section
        p            T            alt                vmix
       [Pa]         [K]          [km]          low         high
      2.42000      164.147      100.690      0.00000      0.00000
      4.15000      165.667      98.6740      0.00000      0.00000
      7.19000      167.176      96.6720      0.00000      0.00000
      12.5000      168.633      94.6650      0.00000      0.00000
      21.7000      170.086      92.6530      0.00000      0.00000
      37.4000      171.579      90.6380      0.00000      0.00000
      63.7000      175.083      88.6260      0.00000      0.00000
      107.000      179.535      86.6160      0.00000      0.00000
      176.000      184.788      84.6160      0.00000      0.00000
      284.000      193.958      82.5980      0.00000      0.00000
      447.000      203.572      80.5910      0.00000      0.00000
      691.000      209.722      78.5820  6.92875e-20  5.51751e-20
      1054.00      213.586      76.5700  5.70380e-20  3.42460e-20
      1590.00      217.824      74.5570  4.58492e-20  2.27166e-19
      2380.00      222.107      72.5340  3.62225e-20  9.72599e-19
      3520.00      225.569      70.5290  2.82692e-20  5.09107e-18
      5180.00      229.510      68.5130  1.74759e-19  6.13960e-18
      7600.00      234.183      66.5010  8.31028e-19  4.27156e-18
      11000.0      240.065      64.5330  3.68787e-18  3.02360e-18
      15900.0      248.812      62.5080  4.32032e-18  2.16782e-18
      22700.0      258.850      60.4770  3.14934e-18  1.57954e-18
      31800.0      271.925      58.4730  2.35260e-18  1.18438e-18
      44000.0      288.946      56.4440  4.21270e-19  2.06072e-19
      59500.0      307.152      54.4330  4.80166e-20  1.96992e-20
      79100.0      324.822      52.4070  9.13622e-21  1.65589e-21
      103400.      342.803      50.3930  1.87364e-21  8.28701e-24
      133600.      358.494      48.3720      0.00000      0.00000
      171000.      372.228      46.3450      0.00000      0.00000
      217000.      386.247      44.3240      0.00000      0.00000
      273000.      400.587      42.3180      0.00000      0.00000
      342000.      415.527      40.2870      0.00000      0.00000
      425000.      430.541      38.2660      0.00000      0.00000
      525000.      446.037      36.2320      0.00000      0.00000
      643000.      461.837      34.2130      0.00000      0.00000
      782000.      478.326      32.1970      0.00000      0.00000
      945000.      494.849      30.1770      0.00000      0.00000
  1.13500e+06      511.387      28.1550      0.00000      0.00000
  1.35500e+06      528.229      26.1350      0.00000      0.00000
  1.61000e+06      545.356      24.1090      0.00000      0.00000
  1.90000e+06      561.784      22.1030      0.00000      0.00000
  2.24000e+06      578.511      20.0510      0.00000      0.00000
  2.62000e+06      594.894      18.0410      0.00000      0.00000
  3.05000e+06      610.601      16.0440      0.00000      0.00000
  3.54000e+06      626.149      14.0420      0.00000      0.00000
  4.10000e+06      641.814      12.0250      0.00000      0.00000
  4.73000e+06      657.294      10.0170      0.00000      0.00000
  5.44000e+06      672.484      8.00410      0.00000      0.00000
  6.24000e+06      687.734      5.98320      0.00000      0.00000
  7.12000e+06      702.724      3.99680      0.00000      0.00000
  8.11000e+06      718.821      1.99540      0.00000      0.00000
  9.21000e+06      735.000      0.00000      0.00000      0.00000
